<TAB Delimited>
<File Title>
rf_ITO700_eB_093.oli
<Date Time>
01.01.2007 1:03:12
<Type>
Total Reflectance
<Designation>
=
<Calibration File>
No Cal File Used
<Unit Time>
Unit Time Used
<CCD Type>
7719
<Grating Type>
7983 Vis/IR
<Flash Version>
1.60
<Slit Size>
100u
<Reading Coefficients>
A: -3.672e-009
B: 1.645e-005
C: 7.085e-001
D: 3.756e+002
<Integration Time>
30.000sec
<CCD Rows>
Min Row: 4
Max Row: 125
<Number Of Scans Averaged>
3
<Voltage>
0.000000
<Current>
0.000000
<Data>
380.0000	1.09247e-001
381.0000	1.41325e-001
382.0000	1.52921e-001
383.0000	1.31858e-001
384.0000	1.21154e-001
385.0000	1.51117e-001
386.0000	1.40295e-001
387.0000	1.26257e-001
388.0000	1.09917e-001
389.0000	1.18198e-001
390.0000	1.37353e-001
391.0000	1.22415e-001
392.0000	1.17816e-001
393.0000	1.27821e-001
394.0000	1.23250e-001
395.0000	1.18948e-001
396.0000	9.42295e-002
397.0000	1.15015e-001
398.0000	1.22189e-001
399.0000	1.25683e-001
400.0000	1.35091e-001
401.0000	1.27115e-001
402.0000	1.20749e-001
403.0000	1.27798e-001
404.0000	1.25291e-001
405.0000	1.30327e-001
406.0000	1.24336e-001
407.0000	1.25917e-001
408.0000	1.27914e-001
409.0000	1.19821e-001
410.0000	1.27880e-001
411.0000	1.31828e-001
412.0000	1.34551e-001
413.0000	1.31518e-001
414.0000	1.28006e-001
415.0000	1.33093e-001
416.0000	1.32000e-001
417.0000	1.27795e-001
418.0000	1.27737e-001
419.0000	1.28223e-001
420.0000	1.27446e-001
421.0000	1.29246e-001
422.0000	1.25014e-001
423.0000	1.28431e-001
424.0000	1.23393e-001
425.0000	1.27110e-001
426.0000	1.28570e-001
427.0000	1.30577e-001
428.0000	1.29794e-001
429.0000	1.32415e-001
430.0000	1.32110e-001
431.0000	1.28852e-001
432.0000	1.33825e-001
433.0000	1.30729e-001
434.0000	1.30563e-001
435.0000	1.28235e-001
436.0000	1.27832e-001
437.0000	1.28287e-001
438.0000	1.29250e-001
439.0000	1.25681e-001
440.0000	1.28516e-001
441.0000	1.24483e-001
442.0000	1.24128e-001
443.0000	1.28630e-001
444.0000	1.26103e-001
445.0000	1.27440e-001
446.0000	1.30888e-001
447.0000	1.30909e-001
448.0000	1.23899e-001
449.0000	1.28170e-001
450.0000	1.30062e-001
451.0000	1.27490e-001
452.0000	1.26687e-001
453.0000	1.27836e-001
454.0000	1.31131e-001
455.0000	1.25758e-001
456.0000	1.26078e-001
457.0000	1.26662e-001
458.0000	1.25022e-001
459.0000	1.25018e-001
460.0000	1.28166e-001
461.0000	1.25453e-001
462.0000	1.25589e-001
463.0000	1.26597e-001
464.0000	1.24249e-001
465.0000	1.25511e-001
466.0000	1.25549e-001
467.0000	1.25336e-001
468.0000	1.27352e-001
469.0000	1.25655e-001
470.0000	1.24680e-001
471.0000	1.27461e-001
472.0000	1.25567e-001
473.0000	1.24476e-001
474.0000	1.27383e-001
475.0000	1.25790e-001
476.0000	1.22219e-001
477.0000	1.25267e-001
478.0000	1.26829e-001
479.0000	1.24738e-001
480.0000	1.23924e-001
481.0000	1.25044e-001
482.0000	1.25742e-001
483.0000	1.24403e-001
484.0000	1.24980e-001
485.0000	1.23976e-001
486.0000	1.24881e-001
487.0000	1.22605e-001
488.0000	1.22311e-001
489.0000	1.23026e-001
490.0000	1.26533e-001
491.0000	1.21705e-001
492.0000	1.23703e-001
493.0000	1.25174e-001
494.0000	1.23700e-001
495.0000	1.23171e-001
496.0000	1.23892e-001
497.0000	1.22167e-001
498.0000	1.24265e-001
499.0000	1.23057e-001
500.0000	1.22459e-001
501.0000	1.24234e-001
502.0000	1.22845e-001
503.0000	1.23038e-001
504.0000	1.22349e-001
505.0000	1.22292e-001
506.0000	1.21769e-001
507.0000	1.21474e-001
508.0000	1.22070e-001
509.0000	1.22258e-001
510.0000	1.21885e-001
511.0000	1.21915e-001
512.0000	1.22069e-001
513.0000	1.21898e-001
514.0000	1.20795e-001
515.0000	1.21948e-001
516.0000	1.21375e-001
517.0000	1.20867e-001
518.0000	1.21590e-001
519.0000	1.21102e-001
520.0000	1.21346e-001
521.0000	1.19096e-001
522.0000	1.20668e-001
523.0000	1.20420e-001
524.0000	1.19578e-001
525.0000	1.20366e-001
526.0000	1.20729e-001
527.0000	1.20825e-001
528.0000	1.19832e-001
529.0000	1.18724e-001
530.0000	1.20335e-001
531.0000	1.19771e-001
532.0000	1.19364e-001
533.0000	1.19036e-001
534.0000	1.19222e-001
535.0000	1.18878e-001
536.0000	1.19321e-001
537.0000	1.18188e-001
538.0000	1.18008e-001
539.0000	1.18997e-001
540.0000	1.18835e-001
541.0000	1.18784e-001
542.0000	1.18309e-001
543.0000	1.17211e-001
544.0000	1.17926e-001
545.0000	1.17500e-001
546.0000	1.18069e-001
547.0000	1.17601e-001
548.0000	1.17636e-001
549.0000	1.17535e-001
550.0000	1.17374e-001
551.0000	1.17461e-001
552.0000	1.17422e-001
553.0000	1.17303e-001
554.0000	1.16712e-001
555.0000	1.17460e-001
556.0000	1.17610e-001
557.0000	1.16435e-001
558.0000	1.16445e-001
559.0000	1.16225e-001
560.0000	1.16703e-001
561.0000	1.16511e-001
562.0000	1.16820e-001
563.0000	1.15627e-001
564.0000	1.16548e-001
565.0000	1.15611e-001
566.0000	1.14487e-001
567.0000	1.15279e-001
568.0000	1.15744e-001
569.0000	1.15483e-001
570.0000	1.15634e-001
571.0000	1.14912e-001
572.0000	1.15192e-001
573.0000	1.14744e-001
574.0000	1.14910e-001
575.0000	1.14739e-001
576.0000	1.14397e-001
577.0000	1.14116e-001
578.0000	1.14566e-001
579.0000	1.14769e-001
580.0000	1.14097e-001
581.0000	1.13728e-001
582.0000	1.13840e-001
583.0000	1.13805e-001
584.0000	1.13607e-001
585.0000	1.12851e-001
586.0000	1.13317e-001
587.0000	1.13357e-001
588.0000	1.13455e-001
589.0000	1.12744e-001
590.0000	1.12847e-001
591.0000	1.15070e-001
592.0000	1.13942e-001
593.0000	1.12698e-001
594.0000	1.12132e-001
595.0000	1.12726e-001
596.0000	1.12276e-001
597.0000	1.12422e-001
598.0000	1.12332e-001
599.0000	1.12192e-001
600.0000	1.11631e-001
601.0000	1.11584e-001
602.0000	1.12338e-001
603.0000	1.11631e-001
604.0000	1.11409e-001
605.0000	1.10992e-001
606.0000	1.10920e-001
607.0000	1.10641e-001
608.0000	1.10708e-001
609.0000	1.10528e-001
610.0000	1.10782e-001
611.0000	1.10874e-001
612.0000	1.10628e-001
613.0000	1.10135e-001
614.0000	1.09826e-001
615.0000	1.10206e-001
616.0000	1.10002e-001
617.0000	1.09982e-001
618.0000	1.09596e-001
619.0000	1.10080e-001
620.0000	1.10574e-001
621.0000	1.09055e-001
622.0000	1.09209e-001
623.0000	1.09188e-001
624.0000	1.09408e-001
625.0000	1.08883e-001
626.0000	1.08952e-001
627.0000	1.08963e-001
628.0000	1.08685e-001
629.0000	1.08753e-001
630.0000	1.09266e-001
631.0000	1.08392e-001
632.0000	1.08608e-001
633.0000	1.07930e-001
634.0000	1.07794e-001
635.0000	1.08448e-001
636.0000	1.08567e-001
637.0000	1.07726e-001
638.0000	1.07657e-001
639.0000	1.07667e-001
640.0000	1.07263e-001
641.0000	1.07679e-001
642.0000	1.07186e-001
643.0000	1.07197e-001
644.0000	1.06868e-001
645.0000	1.06701e-001
646.0000	1.06897e-001
647.0000	1.07336e-001
648.0000	1.06465e-001
649.0000	1.06892e-001
650.0000	1.06599e-001
651.0000	1.05973e-001
652.0000	1.06593e-001
653.0000	1.06732e-001
654.0000	1.06742e-001
655.0000	1.05669e-001
656.0000	1.05639e-001
657.0000	1.05998e-001
658.0000	1.05743e-001
659.0000	1.05534e-001
660.0000	1.05447e-001
661.0000	1.05746e-001
662.0000	1.05507e-001
663.0000	1.05047e-001
664.0000	1.05053e-001
665.0000	1.05209e-001
666.0000	1.05388e-001
667.0000	1.04816e-001
668.0000	1.04592e-001
669.0000	1.04317e-001
670.0000	1.04440e-001
671.0000	1.04876e-001
672.0000	1.04464e-001
673.0000	1.04162e-001
674.0000	1.04288e-001
675.0000	1.03878e-001
676.0000	1.04378e-001
677.0000	1.03896e-001
678.0000	1.03934e-001
679.0000	1.04452e-001
680.0000	1.03769e-001
681.0000	1.03776e-001
682.0000	1.03867e-001
683.0000	1.03839e-001
684.0000	1.03586e-001
685.0000	1.03675e-001
686.0000	1.03302e-001
687.0000	1.03225e-001
688.0000	1.03398e-001
689.0000	1.03222e-001
690.0000	1.02948e-001
691.0000	1.02977e-001
692.0000	1.02952e-001
693.0000	1.03007e-001
694.0000	1.02704e-001
695.0000	1.03072e-001
696.0000	1.03024e-001
697.0000	1.02483e-001
698.0000	1.02600e-001
699.0000	1.02276e-001
700.0000	1.02380e-001
701.0000	1.02077e-001
702.0000	1.02293e-001
703.0000	1.02009e-001
704.0000	1.02110e-001
705.0000	1.02306e-001
706.0000	1.02059e-001
707.0000	1.01648e-001
708.0000	1.01825e-001
709.0000	1.02304e-001
710.0000	1.01927e-001
711.0000	1.01711e-001
712.0000	1.01534e-001
713.0000	1.01183e-001
714.0000	1.00940e-001
715.0000	1.01558e-001
716.0000	1.01266e-001
717.0000	1.00955e-001
718.0000	1.01214e-001
719.0000	1.01276e-001
720.0000	1.00922e-001
721.0000	1.00772e-001
722.0000	1.00499e-001
723.0000	1.00562e-001
724.0000	1.01089e-001
725.0000	1.00328e-001
726.0000	1.01008e-001
727.0000	1.00245e-001
728.0000	1.00320e-001
729.0000	1.00457e-001
730.0000	1.00274e-001
731.0000	9.99484e-002
732.0000	9.99525e-002
733.0000	1.00234e-001
734.0000	1.00145e-001
735.0000	9.96506e-002
736.0000	9.98457e-002
737.0000	9.95688e-002
738.0000	9.97961e-002
739.0000	9.93237e-002
740.0000	9.94994e-002
741.0000	9.95264e-002
742.0000	9.93872e-002
743.0000	9.93513e-002
744.0000	9.94219e-002
745.0000	9.93310e-002
746.0000	9.89532e-002
747.0000	9.91273e-002
748.0000	9.84784e-002
749.0000	9.91250e-002
750.0000	9.85371e-002
751.0000	9.88133e-002
752.0000	9.89301e-002
753.0000	9.84122e-002
754.0000	9.88428e-002
755.0000	9.82601e-002
756.0000	9.82912e-002
757.0000	9.81762e-002
758.0000	9.81519e-002
759.0000	9.79014e-002
760.0000	9.77216e-002
761.0000	9.77905e-002
762.0000	9.75080e-002
763.0000	9.79831e-002
764.0000	9.73581e-002
765.0000	9.75503e-002
766.0000	9.72232e-002
767.0000	9.74179e-002
768.0000	9.72933e-002
769.0000	9.74685e-002
770.0000	9.69677e-002
771.0000	9.68528e-002
772.0000	9.70495e-002
773.0000	9.68686e-002
774.0000	9.70287e-002
775.0000	9.67064e-002
776.0000	9.67323e-002
777.0000	9.66256e-002
778.0000	9.64955e-002
779.0000	9.69348e-002
780.0000	9.63979e-002
781.0000	9.62993e-002
782.0000	9.65474e-002
783.0000	9.60879e-002
784.0000	9.63587e-002
785.0000	9.64464e-002
786.0000	9.61353e-002
787.0000	9.64945e-002
788.0000	9.60652e-002
789.0000	9.57046e-002
790.0000	9.59937e-002
791.0000	9.55454e-002
792.0000	9.58031e-002
793.0000	9.55771e-002
794.0000	9.54693e-002
795.0000	9.55348e-002
796.0000	9.54527e-002
797.0000	9.49771e-002
798.0000	9.49092e-002
799.0000	9.48611e-002
800.0000	9.48872e-002
801.0000	9.51298e-002
802.0000	9.45581e-002
803.0000	9.47803e-002
804.0000	9.44515e-002
805.0000	9.45299e-002
806.0000	9.42489e-002
807.0000	9.49320e-002
808.0000	9.47916e-002
809.0000	9.43410e-002
810.0000	9.43067e-002
811.0000	9.42095e-002
812.0000	9.37669e-002
813.0000	9.42670e-002
814.0000	9.37381e-002
815.0000	9.35884e-002
816.0000	9.36086e-002
817.0000	9.36985e-002
818.0000	9.34154e-002
819.0000	9.34517e-002
820.0000	9.36026e-002
821.0000	9.33323e-002
822.0000	9.33217e-002
823.0000	9.32304e-002
824.0000	9.34679e-002
825.0000	9.29240e-002
826.0000	9.29055e-002
827.0000	9.30593e-002
828.0000	9.29408e-002
829.0000	9.25893e-002
830.0000	9.27737e-002
831.0000	9.24498e-002
832.0000	9.21163e-002
833.0000	9.23931e-002
834.0000	9.24239e-002
835.0000	9.19466e-002
836.0000	9.22731e-002
837.0000	9.19760e-002
838.0000	9.22157e-002
839.0000	9.16799e-002
840.0000	9.22156e-002
841.0000	9.17499e-002
842.0000	9.14191e-002
843.0000	9.15099e-002
844.0000	9.14061e-002
845.0000	9.18514e-002
846.0000	9.13698e-002
847.0000	9.12708e-002
848.0000	9.16905e-002
849.0000	9.12718e-002
850.0000	9.13516e-002
851.0000	9.12120e-002
852.0000	9.10823e-002
853.0000	9.08576e-002
854.0000	9.09426e-002
855.0000	9.07674e-002
856.0000	9.07685e-002
857.0000	9.05247e-002
858.0000	9.04284e-002
859.0000	9.05019e-002
860.0000	9.02468e-002
861.0000	9.03830e-002
862.0000	9.00943e-002
863.0000	9.00366e-002
864.0000	9.01934e-002
865.0000	9.01039e-002
866.0000	9.02031e-002
867.0000	8.97638e-002
868.0000	9.00486e-002
869.0000	9.00896e-002
870.0000	8.95557e-002
871.0000	8.96471e-002
872.0000	8.95057e-002
873.0000	8.92423e-002
874.0000	8.92802e-002
875.0000	8.94117e-002
876.0000	8.94948e-002
877.0000	8.93310e-002
878.0000	8.90327e-002
879.0000	8.92117e-002
880.0000	8.90396e-002
881.0000	8.84964e-002
882.0000	8.85694e-002
883.0000	8.86642e-002
884.0000	8.86776e-002
885.0000	8.89047e-002
886.0000	8.83841e-002
887.0000	8.82634e-002
888.0000	8.87104e-002
889.0000	8.85075e-002
890.0000	8.79001e-002
891.0000	8.83310e-002
892.0000	8.82592e-002
893.0000	8.83031e-002
894.0000	8.80387e-002
895.0000	8.84546e-002
896.0000	8.78936e-002
897.0000	8.83409e-002
898.0000	8.81697e-002
899.0000	8.82156e-002
900.0000	8.82458e-002
901.0000	8.78381e-002
902.0000	8.76429e-002
903.0000	8.73555e-002
904.0000	8.79222e-002
905.0000	8.74755e-002
906.0000	8.76290e-002
907.0000	8.72947e-002
908.0000	8.71220e-002
909.0000	8.71409e-002
910.0000	8.72470e-002
911.0000	8.71534e-002
912.0000	8.72764e-002
913.0000	8.69693e-002
914.0000	8.71939e-002
915.0000	8.69234e-002
916.0000	8.67667e-002
917.0000	8.66754e-002
918.0000	8.69852e-002
919.0000	8.68444e-002
920.0000	8.65556e-002
921.0000	8.67140e-002
922.0000	8.65386e-002
923.0000	8.63217e-002
924.0000	8.64322e-002
925.0000	8.62910e-002
926.0000	8.64344e-002
927.0000	8.62353e-002
928.0000	8.62560e-002
929.0000	8.59165e-002
930.0000	8.58421e-002
931.0000	8.60827e-002
932.0000	8.61085e-002
933.0000	8.59699e-002
934.0000	8.60651e-002
935.0000	8.62024e-002
936.0000	8.59295e-002
937.0000	8.58331e-002
938.0000	8.53684e-002
939.0000	8.58683e-002
940.0000	8.56218e-002
941.0000	8.55395e-002
942.0000	8.52962e-002
943.0000	8.50706e-002
944.0000	8.52507e-002
945.0000	8.53570e-002
946.0000	8.51147e-002
947.0000	8.53621e-002
948.0000	8.51809e-002
949.0000	8.53359e-002
950.0000	8.53474e-002
951.0000	8.51255e-002
952.0000	8.49369e-002
953.0000	8.50901e-002
954.0000	8.46361e-002
955.0000	8.48430e-002
956.0000	8.49731e-002
957.0000	8.47369e-002
958.0000	8.47577e-002
959.0000	8.47270e-002
960.0000	8.48785e-002
961.0000	8.45878e-002
962.0000	8.47299e-002
963.0000	8.43731e-002
964.0000	8.44240e-002
965.0000	8.41933e-002
966.0000	8.43660e-002
967.0000	8.43386e-002
968.0000	8.41687e-002
969.0000	8.45724e-002
970.0000	8.40283e-002
971.0000	8.39723e-002
972.0000	8.42228e-002
973.0000	8.42089e-002
974.0000	8.42709e-002
975.0000	8.37728e-002
976.0000	8.36022e-002
977.0000	8.41362e-002
978.0000	8.35778e-002
979.0000	8.36204e-002
980.0000	8.35146e-002
981.0000	8.37381e-002
982.0000	8.47980e-002
983.0000	8.39848e-002
984.0000	8.35012e-002
985.0000	8.37106e-002
986.0000	8.36660e-002
987.0000	8.32452e-002
988.0000	8.34409e-002
989.0000	8.35939e-002
990.0000	8.32764e-002
991.0000	8.31227e-002
992.0000	8.37979e-002
993.0000	8.33011e-002
994.0000	8.34403e-002
995.0000	8.30351e-002
996.0000	8.32841e-002
997.0000	8.32009e-002
998.0000	8.30124e-002
999.0000	8.29511e-002
1000.0000	8.29672e-002
1001.0000	8.29262e-002
1002.0000	8.30826e-002
1003.0000	8.29465e-002
1004.0000	8.32295e-002
1005.0000	8.29760e-002
1006.0000	8.29150e-002
1007.0000	8.25565e-002
1008.0000	8.32505e-002
1009.0000	8.27840e-002
1010.0000	8.27115e-002
1011.0000	8.27667e-002
1012.0000	8.30169e-002
1013.0000	8.30918e-002
1014.0000	8.18411e-002
1015.0000	8.25507e-002
1016.0000	8.27342e-002
1017.0000	8.25790e-002
1018.0000	8.28839e-002
1019.0000	8.27350e-002
1020.0000	8.28839e-002
1021.0000	8.16827e-002
1022.0000	8.26020e-002
1023.0000	8.23651e-002
1024.0000	8.17969e-002
1025.0000	8.21655e-002
1026.0000	8.19227e-002
1027.0000	8.27748e-002
1028.0000	8.13540e-002
1029.0000	8.16328e-002
1030.0000	8.20360e-002
1031.0000	8.24946e-002
1032.0000	8.20128e-002
1033.0000	8.12951e-002
1034.0000	8.13705e-002
1035.0000	8.19938e-002
1036.0000	8.17615e-002
1037.0000	8.17284e-002
1038.0000	8.12521e-002
1039.0000	8.17194e-002
1040.0000	8.20142e-002
1041.0000	8.19170e-002
1042.0000	8.14336e-002
1043.0000	8.19161e-002
1044.0000	8.08467e-002
1045.0000	8.20049e-002
1046.0000	8.26715e-002
1047.0000	8.26460e-002
1048.0000	8.20714e-002
1049.0000	8.20997e-002
1050.0000	8.09918e-002
1051.0000	8.18553e-002
1052.0000	8.06715e-002
1053.0000	8.22205e-002
1054.0000	8.09487e-002
1055.0000	8.21513e-002
1056.0000	8.16583e-002
1057.0000	8.10163e-002
1058.0000	8.16983e-002
1059.0000	8.15272e-002
1060.0000	8.15907e-002
1061.0000	8.09292e-002
1062.0000	8.06917e-002
1063.0000	8.05971e-002
1064.0000	8.14328e-002
1065.0000	8.14236e-002
1066.0000	8.12731e-002
1067.0000	8.00944e-002
1068.0000	8.10111e-002
1069.0000	8.26478e-002
1070.0000	8.12934e-002
1071.0000	8.09799e-002
1072.0000	8.17196e-002
1073.0000	8.24663e-002
1074.0000	8.04207e-002
1075.0000	8.16570e-002
1076.0000	8.06582e-002
1077.0000	8.15217e-002
1078.0000	8.07411e-002
1079.0000	8.20562e-002
1080.0000	8.18705e-002
1081.0000	8.15240e-002
1082.0000	8.21977e-002
1083.0000	8.13078e-002
1084.0000	8.18052e-002
1085.0000	7.00051e-002
1086.0000	7.83675e-002
1087.0000	8.17078e-002
1088.0000	8.19897e-002
1089.0000	8.32389e-002
1090.0000	8.17869e-002
1091.0000	8.28445e-002
1092.0000	8.39322e-002
1093.0000	8.03759e-002
1094.0000	8.06466e-002
1095.0000	8.19068e-002
1096.0000	8.15030e-002
1097.0000	8.27357e-002
1098.0000	8.13890e-002
1099.0000	8.30259e-002
1100.0000	8.15869e-002
<EndData>
LED Peak Wavelength : 385.6 nm
Peak Spectral Value : 1.576e-001 Reflectance(%)
Half Bandwidth : 388.2 nm
Color Temperature : 3035 K
Dominant Wavelength : 582.4 nm
Purity : 0.526 
Radiometric : 7.4363e+001 
Photometric : 7.854e+003 
Center Wavelength : 194.1 nm

<NDFilter>
<No Filter>
<Version>
3.3
<Lamp Source1>
Internal
<Pulse Width>
0.000000
<Chiller>
0.000000
